OOIBase32 Version 2.0.1.2 Data File
++++++++++++++++++++++++++++++++++++
Date: 02-19-2024, 14:16:19
User: 
Spectrometer Serial Number: ADUD6702
Spectrometer Channel: Master
Integration Time (msec): 21
Spectra Averaged: 1
Boxcar Smoothing: 0
Correct for Electrical Dark: Enabled
Time Normalized: Disabled
Dual-beam Reference: Disabled
Reference Channel: Master
Temperature: Not acquired
Spectrometer Type: S2000
ADC Type: ADC1000USB
Number of Pixels in File: 2048
Graph Title: 
>>>>>Begin Spectral Data<<<<<
177.27	0.000
177.66	0.000
178.05	0.000
178.43	0.000
178.82	0.188
179.21	-0.149
179.59	0.000
179.98	0.000
180.36	0.000
180.75	0.831
181.14	0.000
181.52	1.328
181.91	0.000
182.29	0.000
182.68	0.000
183.07	0.000
183.45	-0.433
183.84	0.000
184.22	-0.118
184.61	0.000
185.00	0.000
185.38	0.000
185.77	0.000
186.15	0.189
186.54	0.112
186.93	0.265
187.31	0.063
187.70	-0.526
188.08	0.000
188.47	-0.646
188.85	-0.073
189.24	0.000
189.62	0.000
190.01	1.554
190.39	-0.304
190.78	-0.029
191.17	0.000
191.55	0.000
191.94	0.000
192.32	0.138
192.71	0.000
193.09	1.328
193.48	0.000
193.86	-0.243
194.25	-1.205
194.63	-0.330
195.02	0.000
195.40	-0.259
195.79	0.793
196.17	-0.330
196.56	0.287
196.94	0.138
197.33	-0.302
197.71	0.231
198.10	0.213
198.48	-0.160
198.87	0.220
199.25	0.000
199.63	0.000
200.02	1.455
200.40	0.516
200.79	0.000
201.17	0.146
201.56	0.637
201.94	0.866
202.33	-0.210
202.71	-0.511
203.09	0.000
203.48	0.262
203.86	-0.085
204.25	0.058
204.63	0.000
205.02	-0.103
205.40	1.328
205.78	0.220
206.17	0.130
206.55	-0.118
206.94	0.138
207.32	0.535
207.70	0.000
208.09	0.000
208.47	0.000
208.86	0.000
209.24	0.000
209.62	0.000
210.01	0.157
210.39	0.000
210.77	-0.443
211.16	-0.056
211.54	-0.015
211.92	0.181
212.31	0.000
212.69	0.350
213.07	-0.193
213.46	0.078
213.84	-0.259
214.23	0.100
214.61	-0.386
214.99	0.034
215.37	0.098
215.76	0.262
216.14	-0.043
216.52	-0.303
216.91	0.000
217.29	0.598
217.67	0.000
218.06	0.000
218.44	0.000
218.82	0.053
219.21	-0.011
219.59	0.077
219.97	0.098
220.35	-0.956
220.74	0.334
221.12	0.000
221.50	0.344
221.88	0.220
222.27	0.000
222.65	-0.191
223.03	-0.017
223.42	-0.533
223.80	0.454
224.18	0.276
224.56	0.000
224.94	-0.153
225.33	0.265
225.71	0.000
226.09	0.000
226.47	0.338
226.86	0.063
227.24	0.000
227.62	0.637
228.00	0.000
228.38	1.455
228.77	0.000
229.15	0.570
229.53	0.535
229.91	0.063
230.29	0.350
230.68	-0.243
231.06	0.000
231.44	1.455
231.82	0.000
232.20	-0.501
232.59	0.276
232.97	0.000
233.35	-0.303
233.73	-0.366
234.11	0.000
234.49	-0.740
234.87	-0.053
235.26	0.000
235.64	-0.123
236.02	0.224
236.40	0.146
236.78	0.344
237.16	0.188
237.54	-0.243
237.93	-0.073
238.31	-0.137
238.69	0.276
239.07	-0.160
239.45	0.162
239.83	-0.193
240.21	0.000
240.59	-0.320
240.97	0.000
241.35	0.063
241.74	-0.452
242.12	0.412
242.50	-0.118
242.88	0.000
243.26	0.386
243.64	0.344
244.02	0.350
244.40	0.000
244.78	-0.640
245.16	0.363
245.54	-0.384
245.92	-0.526
246.30	0.000
246.68	0.000
247.06	0.000
247.44	-0.022
247.82	-0.459
248.20	0.130
248.59	-0.302
248.97	-0.116
249.35	0.535
249.73	0.112
250.11	0.000
250.49	0.000
250.87	-0.304
251.25	-0.330
251.63	-0.239
252.01	0.412
252.39	0.000
252.77	0.000
253.15	0.000
253.52	0.000
253.90	0.793
254.28	-0.646
254.66	0.198
255.04	-0.243
255.42	0.000
255.80	0.000
256.18	0.462
256.56	0.098
256.94	0.089
257.32	0.344
257.70	0.058
258.08	-0.411
258.46	-0.511
258.84	-0.160
259.22	0.077
259.60	0.000
259.98	0.000
260.35	0.941
260.73	0.034
261.11	-0.013
261.49	-0.302
261.87	-0.029
262.25	0.370
262.63	0.286
263.01	0.213
263.39	0.000
263.77	0.000
264.14	0.000
264.52	0.047
264.90	0.000
265.28	0.000
265.66	1.634
266.04	0.000
266.42	-0.137
266.79	0.146
267.17	0.223
267.55	-0.103
267.93	0.000
268.31	0.793
268.69	0.053
269.06	-0.017
269.44	0.185
269.82	0.120
270.20	0.344
270.58	0.000
270.96	-0.740
271.33	0.030
271.71	-0.424
272.09	0.112
272.47	-0.443
272.85	-0.100
273.22	1.328
273.60	0.213
273.98	0.000
274.36	0.338
274.73	0.000
275.11	0.000
275.49	-0.015
275.87	-0.029
276.25	-0.243
276.62	0.467
277.00	0.637
277.38	-0.053
277.76	-0.160
278.13	0.077
278.51	1.328
278.89	0.000
279.26	0.046
279.64	-1.055
280.02	0.000
280.40	-0.303
280.77	-0.526
281.15	0.262
281.53	-0.095
281.90	0.220
282.28	0.130
282.66	-0.034
283.04	1.554
283.41	0.188
283.79	-0.116
284.17	0.000
284.54	0.000
284.92	-0.234
285.30	0.637
285.67	0.232
286.05	0.098
286.43	-0.073
286.80	0.000
287.18	0.443
287.56	1.147
287.93	0.181
288.31	0.291
288.69	0.000
289.06	0.412
289.44	0.262
289.81	-0.443
290.19	0.386
290.57	-0.017
290.94	0.373
291.32	0.000
291.70	0.000
292.07	0.240
292.45	-0.053
292.82	-1.076
293.20	-0.053
293.58	-0.149
293.95	0.157
294.33	-0.210
294.70	0.183
295.08	0.000
295.45	0.262
295.83	0.000
296.21	0.238
296.58	0.443
296.96	0.000
297.33	0.000
297.71	-0.433
298.08	0.063
298.46	0.000
298.83	0.053
299.21	0.000
299.58	0.130
299.96	-0.073
300.34	0.000
300.71	0.000
301.09	0.286
301.46	-0.123
301.84	0.000
302.21	0.000
302.59	0.000
302.96	0.089
303.34	1.455
303.71	0.000
304.09	0.363
304.46	-0.111
304.84	0.000
305.21	0.024
305.58	0.036
305.96	0.000
306.33	0.283
306.71	0.137
307.08	0.157
307.46	0.112
307.83	-0.080
308.21	0.000
308.58	-0.015
308.96	-0.433
309.33	-0.022
309.70	0.238
310.08	0.000
310.45	0.000
310.83	0.557
311.20	0.535
311.57	0.223
311.95	0.112
312.32	0.000
312.70	-0.042
313.07	0.078
313.44	0.220
313.82	-0.149
314.19	0.866
314.57	0.098
314.94	-0.034
315.31	0.000
315.69	0.866
316.06	0.422
316.43	0.598
316.81	-0.165
317.18	-0.103
317.55	-0.210
317.93	0.026
318.30	-0.646
318.68	-0.186
319.05	-0.147
319.42	0.000
319.79	-0.567
320.17	0.929
320.54	0.000
320.91	-0.088
321.29	0.000
321.66	-0.053
322.03	0.286
322.41	0.220
322.78	0.277
323.15	0.000
323.53	0.289
323.90	0.030
324.27	-0.022
324.64	0.030
325.02	-0.017
325.39	-0.118
325.76	0.264
326.13	0.322
326.51	0.843
326.88	0.188
327.25	1.328
327.62	-0.153
328.00	0.511
328.37	-0.029
328.74	-0.015
329.11	0.406
329.49	0.843
329.86	0.370
330.23	0.223
330.60	-0.022
330.97	-0.055
331.35	0.162
331.72	0.078
332.09	0.351
332.46	0.097
332.83	0.390
333.21	-0.013
333.58	0.030
333.95	0.895
334.32	0.180
334.69	0.151
335.06	0.156
335.44	-0.015
335.81	-0.069
336.18	0.097
336.55	0.325
336.92	0.403
337.29	0.089
337.67	-0.042
338.04	0.287
338.41	0.170
338.78	-0.135
339.15	0.182
339.52	0.152
339.89	0.116
340.26	0.292
340.63	0.071
341.01	0.295
341.38	0.181
341.75	0.179
342.12	0.181
342.49	0.340
342.86	-0.013
343.23	0.221
343.60	0.181
343.97	0.079
344.34	0.182
344.71	0.146
345.08	0.092
345.46	-0.010
345.83	-0.024
346.20	0.252
346.57	0.213
346.94	0.130
347.31	0.018
347.68	0.193
348.05	0.159
348.42	0.136
348.79	0.294
349.16	0.146
349.53	0.157
349.90	0.060
350.27	0.056
350.64	0.138
351.01	0.103
351.38	0.098
351.75	0.087
352.12	0.112
352.49	0.016
352.86	0.217
353.23	0.081
353.60	0.134
353.97	0.113
354.34	0.186
354.71	0.050
355.08	0.328
355.44	0.112
355.81	0.091
356.18	-0.051
356.55	0.052
356.92	0.140
357.29	0.081
357.66	0.272
358.03	-0.020
358.40	0.062
358.77	0.133
359.14	0.140
359.51	0.177
359.88	0.152
360.24	0.177
360.61	0.110
360.98	0.103
361.35	0.123
361.72	0.093
362.09	0.116
362.46	0.044
362.83	0.074
363.19	0.062
363.56	0.102
363.93	0.130
364.30	0.076
364.67	0.083
365.04	0.133
365.41	0.146
365.77	0.144
366.14	0.059
366.51	0.133
366.88	0.085
367.25	0.110
367.61	0.087
367.98	0.121
368.35	0.102
368.72	0.073
369.09	0.127
369.45	0.119
369.82	0.112
370.19	0.109
370.56	0.115
370.93	0.132
371.29	0.112
371.66	0.143
372.03	0.109
372.40	0.142
372.76	0.107
373.13	0.115
373.50	0.154
373.87	0.110
374.23	0.131
374.60	0.132
374.97	0.126
375.34	0.078
375.70	0.079
376.07	0.095
376.44	0.081
376.80	0.100
377.17	0.109
377.54	0.096
377.91	0.092
378.27	0.133
378.64	0.145
379.01	0.126
379.37	0.115
379.74	0.086
380.11	0.142
380.47	0.122
380.84	0.114
381.21	0.114
381.57	0.141
381.94	0.137
382.31	0.085
382.67	0.109
383.04	0.091
383.41	0.123
383.77	0.135
384.14	0.094
384.50	0.113
384.87	0.110
385.24	0.087
385.60	0.114
385.97	0.114
386.34	0.123
386.70	0.113
387.07	0.127
387.43	0.137
387.80	0.098
388.16	0.084
388.53	0.128
388.90	0.126
389.26	0.095
389.63	0.088
389.99	0.105
390.36	0.114
390.72	0.093
391.09	0.145
391.46	0.116
391.82	0.127
392.19	0.119
392.55	0.120
392.92	0.132
393.28	0.143
393.65	0.117
394.01	0.116
394.38	0.138
394.74	0.121
395.11	0.115
395.47	0.138
395.84	0.103
396.20	0.079
396.57	0.123
396.93	0.132
397.30	0.118
397.66	0.142
398.03	0.095
398.39	0.105
398.76	0.128
399.12	0.106
399.48	0.123
399.85	0.113
400.21	0.096
400.58	0.122
400.94	0.127
401.31	0.098
401.67	0.102
402.04	0.110
402.40	0.121
402.76	0.117
403.13	0.120
403.49	0.104
403.86	0.117
404.22	0.123
404.58	0.128
404.95	0.121
405.31	0.113
405.68	0.106
406.04	0.127
406.40	0.104
406.77	0.135
407.13	0.129
407.49	0.112
407.86	0.115
408.22	0.108
408.58	0.112
408.95	0.123
409.31	0.115
409.67	0.125
410.04	0.128
410.40	0.115
410.76	0.120
411.13	0.109
411.49	0.118
411.85	0.116
412.22	0.120
412.58	0.136
412.94	0.126
413.31	0.113
413.67	0.129
414.03	0.117
414.39	0.122
414.76	0.116
415.12	0.125
415.48	0.115
415.84	0.114
416.21	0.127
416.57	0.129
416.93	0.108
417.29	0.117
417.66	0.108
418.02	0.101
418.38	0.130
418.74	0.120
419.11	0.105
419.47	0.123
419.83	0.118
420.19	0.120
420.55	0.124
420.92	0.121
421.28	0.114
421.64	0.129
422.00	0.122
422.36	0.123
422.73	0.125
423.09	0.128
423.45	0.123
423.81	0.131
424.17	0.125
424.53	0.119
424.90	0.128
425.26	0.126
425.62	0.124
425.98	0.123
426.34	0.131
426.70	0.127
427.06	0.131
427.43	0.125
427.79	0.110
428.15	0.116
428.51	0.130
428.87	0.132
429.23	0.128
429.59	0.133
429.95	0.126
430.31	0.126
430.67	0.136
431.03	0.124
431.40	0.124
431.76	0.130
432.12	0.138
432.48	0.136
432.84	0.136
433.20	0.132
433.56	0.132
433.92	0.132
434.28	0.134
434.64	0.138
435.00	0.122
435.36	0.130
435.72	0.109
436.08	0.129
436.44	0.124
436.80	0.135
437.16	0.127
437.52	0.122
437.88	0.130
438.24	0.135
438.60	0.138
438.96	0.132
439.32	0.128
439.68	0.131
440.04	0.123
440.40	0.136
440.76	0.135
441.12	0.135
441.48	0.126
441.84	0.138
442.20	0.130
442.56	0.130
442.92	0.129
443.28	0.122
443.63	0.121
443.99	0.129
444.35	0.127
444.71	0.137
445.07	0.140
445.43	0.134
445.79	0.124
446.15	0.137
446.51	0.126
446.87	0.140
447.22	0.132
447.58	0.130
447.94	0.141
448.30	0.148
448.66	0.130
449.02	0.142
449.38	0.149
449.74	0.148
450.09	0.138
450.45	0.136
450.81	0.132
451.17	0.136
451.53	0.149
451.89	0.136
452.24	0.145
452.60	0.142
452.96	0.146
453.32	0.138
453.68	0.133
454.03	0.137
454.39	0.132
454.75	0.136
455.11	0.133
455.46	0.130
455.82	0.136
456.18	0.139
456.54	0.138
456.90	0.138
457.25	0.138
457.61	0.139
457.97	0.140
458.33	0.152
458.68	0.139
459.04	0.140
459.40	0.147
459.75	0.150
460.11	0.147
460.47	0.141
460.83	0.142
461.18	0.138
461.54	0.142
461.90	0.157
462.25	0.144
462.61	0.151
462.97	0.154
463.32	0.155
463.68	0.148
464.04	0.154
464.39	0.152
464.75	0.148
465.11	0.152
465.46	0.150
465.82	0.142
466.18	0.150
466.53	0.150
466.89	0.159
467.25	0.154
467.60	0.158
467.96	0.150
468.31	0.149
468.67	0.153
469.03	0.159
469.38	0.154
469.74	0.152
470.09	0.161
470.45	0.152
470.81	0.152
471.16	0.161
471.52	0.152
471.87	0.145
472.23	0.157
472.59	0.155
472.94	0.155
473.30	0.154
473.65	0.158
474.01	0.153
474.36	0.153
474.72	0.160
475.07	0.163
475.43	0.163
475.78	0.157
476.14	0.161
476.49	0.162
476.85	0.160
477.20	0.168
477.56	0.157
477.91	0.160
478.27	0.160
478.62	0.166
478.98	0.174
479.33	0.156
479.69	0.162
480.04	0.163
480.40	0.173
480.75	0.171
481.11	0.169
481.46	0.168
481.81	0.168
482.17	0.164
482.52	0.166
482.88	0.165
483.23	0.167
483.59	0.176
483.94	0.165
484.29	0.176
484.65	0.170
485.00	0.174
485.36	0.165
485.71	0.176
486.06	0.177
486.42	0.173
486.77	0.186
487.13	0.185
487.48	0.170
487.83	0.177
488.19	0.174
488.54	0.178
488.89	0.178
489.25	0.181
489.60	0.176
489.95	0.181
490.31	0.176
490.66	0.178
491.01	0.182
491.37	0.170
491.72	0.183
492.07	0.177
492.43	0.179
492.78	0.178
493.13	0.185
493.48	0.190
493.84	0.192
494.19	0.181
494.54	0.178
494.89	0.183
495.25	0.188
495.60	0.184
495.95	0.193
496.31	0.186
496.66	0.190
497.01	0.188
497.36	0.187
497.71	0.192
498.07	0.183
498.42	0.190
498.77	0.191
499.12	0.189
499.48	0.190
499.83	0.195
500.18	0.189
500.53	0.196
500.88	0.187
501.24	0.190
501.59	0.190
501.94	0.195
502.29	0.192
502.64	0.198
502.99	0.191
503.35	0.202
503.70	0.197
504.05	0.198
504.40	0.189
504.75	0.196
505.10	0.192
505.45	0.199
505.80	0.199
506.16	0.194
506.51	0.193
506.86	0.205
507.21	0.200
507.56	0.201
507.91	0.193
508.26	0.200
508.61	0.208
508.96	0.203
509.31	0.197
509.67	0.200
510.02	0.203
510.37	0.204
510.72	0.199
511.07	0.205
511.42	0.206
511.77	0.195
512.12	0.205
512.47	0.201
512.82	0.201
513.17	0.204
513.52	0.206
513.87	0.203
514.22	0.198
514.57	0.212
514.92	0.209
515.27	0.205
515.62	0.204
515.97	0.207
516.32	0.205
516.67	0.205
517.02	0.211
517.37	0.206
517.72	0.211
518.07	0.207
518.42	0.215
518.77	0.213
519.12	0.205
519.47	0.207
519.82	0.208
520.16	0.209
520.51	0.212
520.86	0.207
521.21	0.213
521.56	0.208
521.91	0.210
522.26	0.211
522.61	0.203
522.96	0.208
523.31	0.209
523.65	0.213
524.00	0.211
524.35	0.210
524.70	0.211
525.05	0.212
525.40	0.211
525.75	0.213
526.09	0.211
526.44	0.210
526.79	0.212
527.14	0.207
527.49	0.214
527.84	0.214
528.18	0.218
528.53	0.211
528.88	0.210
529.23	0.216
529.58	0.210
529.92	0.211
530.27	0.213
530.62	0.217
530.97	0.211
531.32	0.212
531.66	0.212
532.01	0.218
532.36	0.219
532.71	0.218
533.05	0.207
533.40	0.217
533.75	0.213
534.10	0.213
534.44	0.219
534.79	0.216
535.14	0.210
535.48	0.212
535.83	0.217
536.18	0.215
536.53	0.217
536.87	0.212
537.22	0.213
537.57	0.209
537.91	0.223
538.26	0.215
538.61	0.221
538.95	0.219
539.30	0.218
539.65	0.214
539.99	0.216
540.34	0.223
540.69	0.220
541.03	0.218
541.38	0.215
541.73	0.227
542.07	0.213
542.42	0.222
542.76	0.217
543.11	0.222
543.46	0.221
543.80	0.218
544.15	0.219
544.49	0.220
544.84	0.217
545.18	0.225
545.53	0.221
545.88	0.223
546.22	0.217
546.57	0.218
546.91	0.223
547.26	0.219
547.60	0.215
547.95	0.218
548.29	0.222
548.64	0.220
548.99	0.217
549.33	0.224
549.68	0.221
550.02	0.226
550.37	0.226
550.71	0.223
551.06	0.223
551.40	0.227
551.75	0.221
552.09	0.229
552.43	0.231
552.78	0.226
553.12	0.231
553.47	0.224
553.81	0.227
554.16	0.226
554.50	0.225
554.85	0.226
555.19	0.224
555.54	0.229
555.88	0.225
556.22	0.229
556.57	0.226
556.91	0.226
557.26	0.229
557.60	0.225
557.94	0.234
558.29	0.230
558.63	0.229
558.98	0.231
559.32	0.222
559.66	0.228
560.01	0.228
560.35	0.224
560.69	0.226
561.04	0.226
561.38	0.229
561.72	0.224
562.07	0.227
562.41	0.223
562.75	0.224
563.10	0.229
563.44	0.223
563.78	0.225
564.13	0.226
564.47	0.223
564.81	0.226
565.16	0.220
565.50	0.226
565.84	0.224
566.18	0.223
566.53	0.220
566.87	0.228
567.21	0.222
567.55	0.223
567.90	0.221
568.24	0.219
568.58	0.220
568.92	0.223
569.27	0.216
569.61	0.221
569.95	0.219
570.29	0.219
570.63	0.212
570.98	0.215
571.32	0.210
571.66	0.217
572.00	0.218
572.34	0.215
572.69	0.212
573.03	0.214
573.37	0.212
573.71	0.211
574.05	0.214
574.39	0.216
574.74	0.211
575.08	0.213
575.42	0.212
575.76	0.204
576.10	0.202
576.44	0.206
576.78	0.209
577.12	0.203
577.47	0.205
577.81	0.210
578.15	0.198
578.49	0.202
578.83	0.202
579.17	0.202
579.51	0.209
579.85	0.197
580.19	0.200
580.53	0.195
580.87	0.199
581.21	0.200
581.55	0.201
581.89	0.197
582.24	0.193
582.58	0.198
582.92	0.199
583.26	0.196
583.60	0.196
583.94	0.194
584.28	0.196
584.62	0.198
584.96	0.200
585.30	0.188
585.64	0.197
585.98	0.194
586.32	0.190
586.66	0.193
586.99	0.181
587.33	0.189
587.67	0.194
588.01	0.192
588.35	0.193
588.69	0.190
589.03	0.189
589.37	0.190
589.71	0.188
590.05	0.188
590.39	0.192
590.73	0.189
591.07	0.189
591.41	0.188
591.74	0.192
592.08	0.195
592.42	0.190
592.76	0.188
593.10	0.191
593.44	0.191
593.78	0.197
594.12	0.193
594.45	0.193
594.79	0.194
595.13	0.191
595.47	0.192
595.81	0.187
596.15	0.189
596.48	0.191
596.82	0.197
597.16	0.194
597.50	0.191
597.84	0.191
598.17	0.197
598.51	0.191
598.85	0.198
599.19	0.196
599.53	0.196
599.86	0.197
600.20	0.204
600.54	0.202
600.88	0.205
601.21	0.197
601.55	0.201
601.89	0.204
602.23	0.205
602.56	0.203
602.90	0.199
603.24	0.198
603.57	0.201
603.91	0.204
604.25	0.203
604.58	0.203
604.92	0.201
605.26	0.202
605.60	0.200
605.93	0.202
606.27	0.200
606.61	0.196
606.94	0.203
607.28	0.198
607.61	0.199
607.95	0.197
608.29	0.205
608.62	0.196
608.96	0.201
609.30	0.207
609.63	0.195
609.97	0.197
610.30	0.197
610.64	0.194
610.98	0.191
611.31	0.191
611.65	0.190
611.98	0.192
612.32	0.191
612.66	0.191
612.99	0.190
613.33	0.192
613.66	0.191
614.00	0.186
614.33	0.186
614.67	0.182
615.00	0.186
615.34	0.183
615.67	0.187
616.01	0.182
616.34	0.177
616.68	0.182
617.01	0.186
617.35	0.183
617.68	0.182
618.02	0.180
618.35	0.185
618.69	0.186
619.02	0.187
619.36	0.180
619.69	0.178
620.03	0.181
620.36	0.183
620.70	0.175
621.03	0.183
621.37	0.173
621.70	0.174
622.03	0.173
622.37	0.173
622.70	0.170
623.04	0.175
623.37	0.173
623.70	0.171
624.04	0.168
624.37	0.167
624.71	0.170
625.04	0.164
625.37	0.161
625.71	0.162
626.04	0.158
626.37	0.157
626.71	0.153
627.04	0.151
627.37	0.149
627.71	0.153
628.04	0.153
628.37	0.146
628.71	0.147
629.04	0.143
629.37	0.146
629.71	0.145
630.04	0.144
630.37	0.137
630.70	0.135
631.04	0.139
631.37	0.134
631.70	0.132
632.04	0.123
632.37	0.134
632.70	0.130
633.03	0.128
633.37	0.130
633.70	0.124
634.03	0.123
634.36	0.124
634.69	0.124
635.03	0.122
635.36	0.122
635.69	0.119
636.02	0.116
636.35	0.120
636.69	0.113
637.02	0.110
637.35	0.110
637.68	0.109
638.01	0.110
638.34	0.109
638.68	0.110
639.01	0.106
639.34	0.103
639.67	0.104
640.00	0.100
640.33	0.100
640.66	0.106
641.00	0.098
641.33	0.099
641.66	0.093
641.99	0.097
642.32	0.100
642.65	0.098
642.98	0.098
643.31	0.095
643.64	0.091
643.97	0.090
644.30	0.096
644.63	0.092
644.96	0.089
645.30	0.087
645.63	0.091
645.96	0.086
646.29	0.093
646.62	0.085
646.95	0.086
647.28	0.082
647.61	0.085
647.94	0.082
648.27	0.081
648.60	0.078
648.93	0.075
649.26	0.074
649.59	0.079
649.92	0.086
650.25	0.080
650.58	0.085
650.90	0.078
651.23	0.081
651.56	0.080
651.89	0.078
652.22	0.081
652.55	0.076
652.88	0.075
653.21	0.084
653.54	0.084
653.87	0.072
654.20	0.075
654.53	0.069
654.85	0.076
655.18	0.073
655.51	0.075
655.84	0.075
656.17	0.078
656.50	0.072
656.83	0.078
657.16	0.069
657.48	0.072
657.81	0.069
658.14	0.075
658.47	0.079
658.80	0.072
659.12	0.075
659.45	0.073
659.78	0.074
660.11	0.077
660.44	0.070
660.76	0.065
661.09	0.077
661.42	0.071
661.75	0.074
662.08	0.069
662.40	0.076
662.73	0.067
663.06	0.070
663.39	0.073
663.71	0.068
664.04	0.075
664.37	0.071
664.70	0.065
665.02	0.065
665.35	0.073
665.68	0.060
666.00	0.068
666.33	0.062
666.66	0.066
666.98	0.070
667.31	0.069
667.64	0.069
667.96	0.062
668.29	0.063
668.62	0.067
668.94	0.063
669.27	0.063
669.60	0.066
669.92	0.066
670.25	0.066
670.58	0.065
670.90	0.062
671.23	0.066
671.55	0.064
671.88	0.064
672.21	0.065
672.53	0.061
672.86	0.067
673.18	0.067
673.51	0.069
673.83	0.064
674.16	0.067
674.49	0.064
674.81	0.064
675.14	0.067
675.46	0.065
675.79	0.066
676.11	0.064
676.44	0.063
676.76	0.067
677.09	0.060
677.41	0.069
677.74	0.066
678.06	0.066
678.39	0.069
678.71	0.068
679.04	0.061
679.36	0.063
679.69	0.064
680.01	0.068
680.34	0.063
680.66	0.065
680.99	0.059
681.31	0.067
681.63	0.060
681.96	0.067
682.28	0.068
682.61	0.065
682.93	0.066
683.25	0.061
683.58	0.063
683.90	0.065
684.23	0.062
684.55	0.063
684.87	0.064
685.20	0.060
685.52	0.060
685.84	0.063
686.17	0.058
686.49	0.065
686.82	0.061
687.14	0.057
687.46	0.066
687.79	0.063
688.11	0.063
688.43	0.068
688.75	0.068
689.08	0.064
689.40	0.061
689.72	0.059
690.05	0.060
690.37	0.066
690.69	0.069
691.01	0.067
691.34	0.066
691.66	0.066
691.98	0.063
692.30	0.061
692.63	0.065
692.95	0.065
693.27	0.065
693.59	0.061
693.92	0.057
694.24	0.056
694.56	0.064
694.88	0.059
695.20	0.064
695.53	0.067
695.85	0.060
696.17	0.064
696.49	0.062
696.81	0.061
697.13	0.064
697.46	0.061
697.78	0.063
698.10	0.068
698.42	0.064
698.74	0.060
699.06	0.062
699.38	0.060
699.71	0.059
700.03	0.066
700.35	0.064
700.67	0.060
700.99	0.063
701.31	0.062
701.63	0.060
701.95	0.065
702.27	0.066
702.59	0.064
702.91	0.063
703.23	0.059
703.55	0.063
703.87	0.067
704.20	0.064
704.52	0.068
704.84	0.067
705.16	0.067
705.48	0.069
705.80	0.069
706.12	0.066
706.44	0.066
706.76	0.052
707.08	0.062
707.40	0.066
707.72	0.067
708.03	0.068
708.35	0.063
708.67	0.067
708.99	0.063
709.31	0.062
709.63	0.064
709.95	0.058
710.27	0.061
710.59	0.064
710.91	0.071
711.23	0.058
711.55	0.060
711.87	0.066
712.19	0.058
712.50	0.068
712.82	0.062
713.14	0.067
713.46	0.057
713.78	0.062
714.10	0.064
714.42	0.060
714.73	0.062
715.05	0.059
715.37	0.062
715.69	0.057
716.01	0.062
716.33	0.059
716.64	0.062
716.96	0.065
717.28	0.060
717.60	0.058
717.92	0.068
718.23	0.067
718.55	0.060
718.87	0.061
719.19	0.058
719.50	0.066
719.82	0.061
720.14	0.063
720.46	0.060
720.77	0.059
721.09	0.061
721.41	0.070
721.73	0.065
722.04	0.061
722.36	0.062
722.68	0.065
722.99	0.062
723.31	0.064
723.63	0.062
723.94	0.064
724.26	0.061
724.58	0.053
724.89	0.065
725.21	0.058
725.53	0.061
725.84	0.058
726.16	0.067
726.48	0.066
726.79	0.065
727.11	0.069
727.42	0.055
727.74	0.063
728.06	0.060
728.37	0.062
728.69	0.061
729.00	0.060
729.32	0.060
729.64	0.069
729.95	0.064
730.27	0.059
730.58	0.054
730.90	0.055
731.21	0.060
731.53	0.053
731.84	0.058
732.16	0.061
732.47	0.054
732.79	0.059
733.10	0.057
733.42	0.060
733.73	0.061
734.05	0.065
734.36	0.066
734.68	0.069
734.99	0.057
735.31	0.060
735.62	0.056
735.94	0.057
736.25	0.059
736.57	0.053
736.88	0.064
737.19	0.056
737.51	0.059
737.82	0.056
738.14	0.059
738.45	0.063
738.76	0.060
739.08	0.053
739.39	0.049
739.71	0.057
740.02	0.059
740.33	0.057
740.65	0.050
740.96	0.054
741.27	0.059
741.59	0.050
741.90	0.064
742.21	0.057
742.53	0.053
742.84	0.059
743.15	0.051
743.47	0.059
743.78	0.058
744.09	0.058
744.41	0.059
744.72	0.046
745.03	0.062
745.34	0.058
745.66	0.053
745.97	0.056
746.28	0.054
746.59	0.071
746.91	0.063
747.22	0.059
747.53	0.060
747.84	0.062
748.16	0.061
748.47	0.057
748.78	0.054
749.09	0.068
749.40	0.056
749.72	0.053
750.03	0.056
750.34	0.055
750.65	0.055
750.96	0.064
751.28	0.064
751.59	0.060
751.90	0.049
752.21	0.062
752.52	0.052
752.83	0.060
753.14	0.059
753.45	0.054
753.77	0.059
754.08	0.057
754.39	0.043
754.70	0.047
755.01	0.055
755.32	0.058
755.63	0.060
755.94	0.058
756.25	0.065
756.56	0.051
756.87	0.055
757.18	0.058
757.49	0.055
757.80	0.057
758.12	0.053
758.43	0.058
758.74	0.055
759.05	0.065
759.36	0.055
759.67	0.053
759.98	0.055
760.29	0.040
760.60	0.056
760.90	0.052
761.21	0.053
761.52	0.047
761.83	0.051
762.14	0.052
762.45	0.060
762.76	0.053
763.07	0.046
763.38	0.058
763.69	0.063
764.00	0.055
764.31	0.057
764.62	0.058
764.93	0.055
765.23	0.060
765.54	0.053
765.85	0.055
766.16	0.055
766.47	0.061
766.78	0.062
767.09	0.064
767.40	0.055
767.70	0.051
768.01	0.058
768.32	0.045
768.63	0.053
768.94	0.054
769.24	0.050
769.55	0.053
769.86	0.054
770.17	0.054
770.48	0.054
770.78	0.058
771.09	0.057
771.40	0.052
771.71	0.054
772.01	0.057
772.32	0.057
772.63	0.067
772.94	0.058
773.24	0.059
773.55	0.059
773.86	0.061
774.17	0.050
774.47	0.052
774.78	0.051
775.09	0.046
775.39	0.052
775.70	0.051
776.01	0.051
776.31	0.069
776.62	0.049
776.93	0.050
777.23	0.067
777.54	0.060
777.85	0.047
778.15	0.062
778.46	0.063
778.77	0.049
779.07	0.049
779.38	0.065
779.68	0.059
779.99	0.055
780.30	0.051
780.60	0.050
780.91	0.042
781.21	0.048
781.52	0.047
781.82	0.036
782.13	0.056
782.43	0.053
782.74	0.051
783.05	0.045
783.35	0.049
783.66	0.039
783.96	0.057
784.27	0.052
784.57	0.046
784.88	0.059
785.18	0.055
785.49	0.052
785.79	0.065
786.10	0.062
786.40	0.066
786.70	0.058
787.01	0.060
787.31	0.063
787.62	0.068
787.92	0.057
788.23	0.060
788.53	0.055
788.84	0.058
789.14	0.074
789.44	0.056
789.75	0.042
790.05	0.053
790.36	0.051
790.66	0.062
790.96	0.055
791.27	0.055
791.57	0.043
791.87	0.051
792.18	0.046
792.48	0.078
792.78	0.061
793.09	0.072
793.39	0.048
793.69	0.054
794.00	0.067
794.30	0.046
794.60	0.056
794.91	0.054
795.21	0.062
795.51	0.042
795.81	0.045
796.12	0.053
796.42	0.053
796.72	0.050
797.02	0.058
797.33	0.062
797.63	0.049
797.93	0.057
798.23	0.057
798.54	0.057
798.84	0.048
799.14	0.061
799.44	0.043
799.74	0.057
800.05	0.049
800.35	0.062
800.65	0.053
800.95	0.057
801.25	0.055
801.55	0.032
801.86	0.060
802.16	0.057
802.46	0.052
802.76	0.056
803.06	0.051
803.36	0.056
803.66	0.032
803.96	0.054
804.26	0.064
804.57	0.050
804.87	0.067
805.17	0.052
805.47	0.062
805.77	0.073
806.07	0.049
806.37	0.050
806.67	0.057
806.97	0.035
807.27	0.050
807.57	0.053
807.87	0.045
808.17	0.051
808.47	0.043
808.77	0.043
809.07	0.042
809.37	0.054
809.67	0.055
809.97	0.058
810.27	0.058
810.57	0.044
810.87	0.060
811.17	0.062
811.47	0.049
811.77	0.049
812.07	0.071
812.37	0.038
812.67	0.054
812.97	0.051
813.26	0.044
813.56	0.035
813.86	0.065
814.16	0.059
814.46	0.043
814.76	0.055
815.06	0.052
815.36	0.048
815.66	0.056
815.95	0.058
816.25	0.055
816.55	0.056
816.85	0.056
817.15	0.051
817.45	0.050
817.74	0.050
818.04	0.054
818.34	0.065
818.64	0.051
818.94	0.047
819.23	0.060
819.53	0.043
819.83	0.056
820.13	0.052
820.42	0.057
820.72	0.039
821.02	0.061
821.32	0.052
821.61	0.057
821.91	0.062
822.21	0.062
822.50	0.054
822.80	0.053
823.10	0.045
823.40	0.052
823.69	0.048
823.99	0.062
824.29	0.059
824.58	0.064
824.88	0.050
825.18	0.034
825.47	0.043
825.77	0.047
826.06	0.052
826.36	0.052
826.66	0.045
826.95	0.060
827.25	0.060
827.55	0.050
827.84	0.053
828.14	0.053
828.43	0.055
828.73	0.050
829.02	0.047
829.32	0.042
829.62	0.058
829.91	0.062
830.21	0.050
830.50	0.062
830.80	0.049
831.09	0.059
831.39	0.059
831.68	0.058
831.98	0.049
832.27	0.052
832.57	0.049
832.86	0.061
833.16	0.048
833.45	0.071
833.75	0.063
834.04	0.054
834.34	0.030
834.63	0.048
834.93	0.063
835.22	0.050
835.51	0.058
835.81	0.037
836.10	0.043
836.40	0.055
836.69	0.053
836.98	0.054
837.28	0.038
837.57	0.057
837.87	0.052
838.16	0.036
838.45	0.041
838.75	0.050
839.04	0.043
839.33	0.063
839.63	0.063
839.92	0.049
840.21	0.053
840.51	0.059
840.80	0.060
841.09	0.037
841.39	0.045
841.68	0.042
841.97	0.061
842.26	0.036
842.56	0.055
842.85	0.063
843.14	0.067
843.43	0.051
843.73	0.041
844.02	0.049
844.31	0.062
844.60	0.047
844.90	0.031
845.19	0.040
845.48	0.052
845.77	0.052
846.06	0.056
846.36	0.055
846.65	0.031
846.94	0.051
847.23	0.056
847.52	0.040
847.81	0.043
848.11	0.063
848.40	0.058
848.69	0.069
848.98	0.036
849.27	0.044
849.56	0.059
849.85	0.049
850.14	0.042
850.44	0.062
850.73	0.045
851.02	0.060
851.31	0.072
851.60	0.056
851.89	0.039
852.18	0.052
852.47	0.060
852.76	0.055
853.05	0.044
853.34	0.041
853.63	0.043
853.92	0.031
854.21	0.073
854.50	0.050
854.79	0.031
855.08	0.042
855.37	0.029
855.66	0.036
855.95	0.034
856.24	0.042
856.53	0.071
856.82	0.033
857.11	0.037
857.40	0.061
857.69	0.063
857.98	0.051
858.27	0.053
858.56	0.063
858.84	0.048
859.13	0.050
859.42	0.048
859.71	0.068
860.00	0.055
860.29	0.031
860.58	0.043
860.87	0.061
861.15	0.029
861.44	0.058
861.73	0.041
862.02	0.071
862.31	0.039
862.60	0.040
862.88	0.044
863.17	0.081
863.46	0.036
863.75	0.071
864.04	0.048
864.32	0.029
864.61	0.035
864.90	0.040
865.19	0.054
865.47	0.041
865.76	0.021
866.05	0.052
866.34	0.026
866.62	0.048
866.91	0.039
867.20	0.043
867.49	0.069
867.77	0.056
868.06	0.055
868.35	0.067
868.63	0.074
868.92	0.077
869.21	0.047
869.49	0.049
869.78	0.045
870.07	0.031
870.35	0.038
870.64	0.007
870.92	0.030
871.21	0.058
871.50	0.041
871.78	0.059
872.07	0.055
872.35	0.052
872.64	0.044
872.93	0.034
873.21	0.044
873.50	0.033
873.78	0.052
874.07	0.063
874.35	0.034
874.64	0.058
874.93	0.062
875.21	0.062
875.50	0.052
875.78	0.055
876.07	0.025
876.35	0.046
876.64	0.071
>>>>>End Spectral Data<<<<<
